# Target: WASP-39b
# Instrument: NIRISS/SOSS
# Pipeline: transitspectroscopy
# Author: Espinoza
wave,wave_error,dppm,dppm_err,order
0.60107, 0.00020, 22327.70, 833.10, 2
0.60147, 0.00020, 21751.20, 787.90, 2
0.60187, 0.00020, 21600.70, 786.50, 2
0.60227, 0.00020, 20761.20, 793.70, 2
0.60267, 0.00020, 21680.80, 1062.80, 2
0.60307, 0.00020, 21421.90, 730.00, 2
0.60347, 0.00020, 22090.20, 849.10, 2
0.60387, 0.00020, 19833.40, 887.90, 2
0.60427, 0.00020, 20510.10, 908.00, 2
0.60467, 0.00020, 21549.80, 677.20, 2
0.60517, 0.00025, 21396.50, 765.90, 2
0.60557, 0.00020, 22012.00, 733.50, 2
0.60597, 0.00020, 21107.00, 729.60, 2
0.60637, 0.00020, 21119.70, 684.90, 2
0.60677, 0.00020, 21407.70, 772.10, 2
0.60717, 0.00020, 22030.80, 723.20, 2
0.60757, 0.00020, 22805.60, 739.80, 2
0.60797, 0.00020, 21968.40, 721.10, 2
0.60837, 0.00020, 20909.30, 759.30, 2
0.60887, 0.00025, 20015.00, 758.30, 2
0.60927, 0.00020, 21536.10, 709.40, 2
0.60967, 0.00020, 21746.50, 990.50, 2
0.61007, 0.00020, 21481.00, 691.50, 2
0.61087, 0.00040, 21746.70, 888.00, 2
0.61127, 0.00020, 20748.60, 645.70, 2
0.61167, 0.00020, 21533.50, 678.00, 2
0.61217, 0.00025, 20275.30, 721.90, 2
0.61257, 0.00020, 21381.10, 683.10, 2
0.61297, 0.00020, 20584.80, 704.40, 2
0.61337, 0.00020, 22219.00, 793.60, 2
0.61377, 0.00020, 21884.60, 696.50, 2
0.61417, 0.00020, 21074.80, 650.40, 2
0.61457, 0.00020, 20707.30, 586.80, 2
0.61497, 0.00020, 21450.40, 704.10, 2
0.61547, 0.00025, 20907.50, 754.60, 2
0.61587, 0.00020, 21846.30, 575.00, 2
0.61627, 0.00020, 21217.60, 734.30, 2
0.61667, 0.00020, 20967.80, 668.80, 2
0.61707, 0.00020, 21032.30, 808.20, 2
0.61747, 0.00020, 21412.00, 679.10, 2
0.61787, 0.00020, 20753.90, 568.60, 2
0.61837, 0.00025, 21334.80, 610.00, 2
0.61877, 0.00020, 21015.60, 717.40, 2
0.61917, 0.00020, 21350.30, 559.70, 2
0.61957, 0.00020, 21590.50, 577.60, 2
0.61997, 0.00020, 21070.70, 615.90, 2
0.62037, 0.00020, 21042.10, 689.00, 2
0.62087, 0.00025, 21526.10, 631.10, 2
0.62127, 0.00020, 22246.40, 629.30, 2
0.62167, 0.00020, 21120.20, 647.00, 2
0.62207, 0.00020, 21266.20, 565.90, 2
0.62247, 0.00020, 20426.30, 622.60, 2
0.62287, 0.00020, 21539.70, 743.10, 2
0.62327, 0.00020, 21113.10, 513.10, 2
0.62377, 0.00025, 21587.30, 731.20, 2
0.62417, 0.00020, 21420.90, 684.80, 2
0.62457, 0.00020, 21094.90, 675.80, 2
0.62497, 0.00020, 20989.10, 605.20, 2
0.62537, 0.00020, 21004.90, 524.90, 2
0.62587, 0.00025, 20758.30, 533.10, 2
0.62627, 0.00020, 21346.80, 532.50, 2
0.62667, 0.00020, 21566.80, 594.30, 2
0.62707, 0.00020, 22069.50, 591.20, 2
0.62787, 0.00040, 20130.60, 612.40, 2
0.62877, 0.00045, 20554.90, 524.30, 2
0.62917, 0.00020, 20900.40, 693.10, 2
0.62957, 0.00020, 20366.10, 595.50, 2
0.62997, 0.00020, 20554.20, 468.60, 2
0.63037, 0.00020, 21379.90, 475.10, 2
0.63087, 0.00025, 20989.10, 566.40, 2
0.63127, 0.00020, 21131.00, 504.50, 2
0.63167, 0.00020, 20934.80, 626.60, 2
0.63207, 0.00020, 20749.30, 458.00, 2
0.63247, 0.00020, 21574.10, 755.60, 2
0.63297, 0.00025, 20333.60, 556.20, 2
0.63338, 0.00021, 20044.90, 488.20, 2
0.63378, 0.00020, 20886.60, 510.80, 2
0.63418, 0.00020, 21009.80, 454.90, 2
0.63458, 0.00020, 20319.60, 501.40, 2
0.63508, 0.00025, 20962.10, 528.20, 2
0.63548, 0.00020, 21398.90, 469.40, 2
0.63588, 0.00020, 21367.40, 440.20, 2
0.63628, 0.00020, 20782.40, 440.60, 2
0.63668, 0.00020, 21565.00, 497.90, 2
0.63718, 0.00025, 20991.00, 526.60, 2
0.63758, 0.00020, 21811.40, 581.60, 2
0.63798, 0.00020, 21762.50, 560.40, 2
0.63838, 0.00020, 21682.50, 470.40, 2
0.63888, 0.00025, 20785.70, 549.90, 2
0.63928, 0.00020, 20206.60, 452.50, 2
0.63968, 0.00020, 20919.90, 546.60, 2
0.64008, 0.00020, 20989.70, 421.90, 2
0.64048, 0.00020, 20664.60, 495.10, 2
0.64098, 0.00025, 21400.30, 499.70, 2
0.64138, 0.00020, 21471.70, 443.20, 2
0.64178, 0.00020, 21176.10, 520.00, 2
0.64218, 0.00020, 20843.40, 403.90, 2
0.64258, 0.00020, 21602.00, 506.20, 2
0.64308, 0.00025, 21153.90, 493.50, 2
0.64348, 0.00020, 20991.60, 468.80, 2
0.64388, 0.00020, 20948.80, 751.20, 2
0.64428, 0.00020, 21006.30, 388.40, 2
0.64478, 0.00025, 21145.30, 940.10, 2
0.64518, 0.00020, 21269.40, 535.80, 2
0.64558, 0.00020, 21370.90, 521.80, 2
0.64598, 0.00020, 21378.10, 437.90, 2
0.64648, 0.00025, 21229.80, 428.90, 2
0.64688, 0.00020, 21344.40, 513.30, 2
0.64728, 0.00020, 21470.20, 449.90, 2
0.64768, 0.00020, 21114.10, 619.10, 2
0.64818, 0.00025, 20923.90, 535.20, 2
0.64858, 0.00020, 21319.80, 534.20, 2
0.64898, 0.00020, 21428.70, 533.00, 2
0.64938, 0.00020, 21152.60, 483.60, 2
0.64978, 0.00020, 20694.10, 404.70, 2
0.65028, 0.00025, 20936.40, 442.20, 2
0.65068, 0.00020, 21238.40, 467.30, 2
0.65108, 0.00020, 21171.90, 898.80, 2
0.65148, 0.00020, 20435.70, 433.80, 2
0.65198, 0.00025, 21201.00, 401.90, 2
0.65238, 0.00020, 21208.20, 402.90, 2
0.65278, 0.00020, 21338.90, 389.70, 2
0.65328, 0.00025, 21273.00, 463.60, 2
0.65368, 0.00020, 20918.50, 476.60, 2
0.65408, 0.00020, 20492.00, 465.90, 2
0.65448, 0.00020, 21103.70, 529.70, 2
0.65498, 0.00025, 20925.80, 356.20, 2
0.65538, 0.00020, 21393.60, 573.00, 2
0.65578, 0.00020, 21018.70, 537.20, 2
0.65618, 0.00020, 21559.40, 560.00, 2
0.65668, 0.00025, 20745.30, 550.10, 2
0.65708, 0.00020, 21156.40, 515.40, 2
0.65748, 0.00020, 20925.40, 436.90, 2
0.65788, 0.00020, 20953.80, 494.40, 2
0.65838, 0.00025, 21030.20, 360.00, 2
0.65878, 0.00020, 21065.70, 545.20, 2
0.65918, 0.00020, 21000.00, 562.10, 2
0.65958, 0.00020, 21273.70, 659.70, 2
0.66008, 0.00025, 20704.80, 563.10, 2
0.66048, 0.00020, 21088.80, 551.30, 2
0.66088, 0.00020, 21207.80, 385.50, 2
0.66138, 0.00025, 21447.40, 529.90, 2
0.66178, 0.00020, 20728.20, 426.40, 2
0.66218, 0.00020, 20964.50, 362.40, 2
0.66258, 0.00020, 21183.90, 322.70, 2
0.66308, 0.00025, 20642.20, 545.20, 2
0.66348, 0.00020, 20985.80, 413.40, 2
0.66388, 0.00020, 21405.70, 466.20, 2
0.66438, 0.00025, 20788.60, 433.70, 2
0.66478, 0.00020, 21126.40, 321.40, 2
0.66518, 0.00020, 21585.10, 476.60, 2
0.66558, 0.00020, 21303.70, 344.90, 2
0.66608, 0.00025, 21641.60, 484.30, 2
0.66648, 0.00020, 21118.30, 400.00, 2
0.66688, 0.00020, 21417.10, 480.70, 2
0.66738, 0.00025, 21312.90, 410.90, 2
0.66778, 0.00020, 21339.80, 444.30, 2
0.66818, 0.00020, 20700.20, 727.30, 2
0.66868, 0.00025, 21374.10, 492.10, 2
0.66908, 0.00020, 20946.30, 429.90, 2
0.66948, 0.00020, 20415.10, 392.90, 2
0.66988, 0.00020, 21456.90, 445.60, 2
0.67039, 0.00026, 21437.80, 874.60, 2
0.67079, 0.00020, 21164.70, 413.60, 2
0.67119, 0.00020, 20913.70, 455.90, 2
0.67169, 0.00025, 21118.80, 468.00, 2
0.67209, 0.00020, 21191.90, 477.20, 2
0.67249, 0.00020, 21055.70, 763.30, 2
0.67299, 0.00025, 20885.60, 395.10, 2
0.67339, 0.00020, 20683.90, 469.60, 2
0.67379, 0.00020, 20660.10, 314.00, 2
0.67429, 0.00025, 21301.60, 417.10, 2
0.67469, 0.00020, 21151.50, 533.40, 2
0.67509, 0.00020, 20918.20, 418.80, 2
0.67549, 0.00020, 21464.30, 353.70, 2
0.67599, 0.00025, 21341.80, 298.40, 2
0.67639, 0.00020, 20543.20, 438.10, 2
0.67679, 0.00020, 20475.50, 440.90, 2
0.67729, 0.00025, 21313.70, 295.50, 2
0.67769, 0.00020, 20609.90, 462.20, 2
0.67809, 0.00020, 21147.00, 285.60, 2
0.67859, 0.00025, 20929.70, 464.70, 2
0.67899, 0.00020, 20922.50, 385.10, 2
0.67939, 0.00020, 21339.30, 462.30, 2
0.67989, 0.00025, 20958.40, 636.50, 2
0.68029, 0.00020, 20651.40, 429.80, 2
0.68069, 0.00020, 21415.30, 390.00, 2
0.68119, 0.00025, 21059.30, 659.60, 2
0.68159, 0.00020, 20475.50, 328.60, 2
0.68199, 0.00020, 20891.50, 462.80, 2
0.68249, 0.00025, 20981.20, 405.00, 2
0.68289, 0.00020, 20647.30, 421.60, 2
0.68329, 0.00020, 20356.10, 423.60, 2
0.68379, 0.00025, 20763.80, 383.40, 2
0.68419, 0.00020, 20845.60, 303.20, 2
0.68459, 0.00020, 21214.20, 886.00, 2
0.68509, 0.00025, 21235.30, 326.00, 2
0.68549, 0.00020, 20856.80, 443.60, 2
0.68589, 0.00020, 20818.60, 436.30, 2
0.68639, 0.00025, 20599.80, 467.20, 2
0.68679, 0.00020, 20706.30, 502.00, 2
0.68719, 0.00020, 21137.70, 498.80, 2
0.68769, 0.00025, 21368.90, 429.10, 2
0.68809, 0.00020, 20778.40, 519.90, 2
0.68859, 0.00025, 21178.80, 524.20, 2
0.68899, 0.00020, 20859.30, 458.00, 2
0.68939, 0.00020, 21012.10, 416.70, 2
0.68989, 0.00025, 20577.40, 471.70, 2
0.69029, 0.00020, 21046.90, 289.30, 2
0.69069, 0.00020, 21176.60, 443.70, 2
0.69119, 0.00025, 20858.70, 353.00, 2
0.69159, 0.00020, 20811.20, 412.90, 2
0.69199, 0.00020, 20971.50, 462.40, 2
0.69249, 0.00025, 21386.80, 432.30, 2
0.69289, 0.00020, 21057.40, 443.80, 2
0.69329, 0.00020, 21226.90, 373.20, 2
0.69379, 0.00025, 20967.60, 386.50, 2
0.69419, 0.00020, 21710.70, 392.20, 2
0.69469, 0.00025, 21083.10, 440.70, 2
0.69509, 0.00020, 21146.60, 516.90, 2
0.69549, 0.00020, 21066.30, 366.90, 2
0.69599, 0.00025, 20649.30, 378.90, 2
0.69639, 0.00020, 20809.20, 461.40, 2
0.69679, 0.00020, 20840.90, 386.80, 2
0.69729, 0.00025, 20959.30, 512.20, 2
0.69769, 0.00020, 21152.20, 385.50, 2
0.69819, 0.00025, 20661.60, 285.40, 2
0.69859, 0.00020, 20956.80, 354.00, 2
0.69899, 0.00020, 21173.30, 534.20, 2
0.69949, 0.00025, 21075.40, 417.50, 2
0.69989, 0.00020, 21141.50, 462.70, 2
0.70029, 0.00020, 20776.00, 403.80, 2
0.70079, 0.00025, 21584.80, 731.00, 2
0.70119, 0.00020, 20712.70, 445.50, 2
0.70169, 0.00025, 20796.50, 638.10, 2
0.70209, 0.00020, 20998.80, 448.00, 2
0.70249, 0.00020, 20573.30, 384.40, 2
0.70299, 0.00025, 21792.30, 324.20, 2
0.70339, 0.00020, 21072.20, 412.20, 2
0.70389, 0.00025, 20951.10, 444.10, 2
0.70429, 0.00020, 21195.00, 423.70, 2
0.70469, 0.00020, 20642.30, 298.70, 2
0.70519, 0.00025, 21167.90, 324.60, 2
0.70559, 0.00020, 21026.30, 394.00, 2
0.70599, 0.00020, 20887.80, 457.40, 2
0.70649, 0.00025, 20954.50, 409.20, 2
0.70689, 0.00020, 21306.30, 431.30, 2
0.70740, 0.00026, 20761.00, 325.30, 2
0.70780, 0.00020, 21090.00, 332.10, 2
0.70820, 0.00020, 20922.20, 250.70, 2
0.70870, 0.00025, 21204.00, 412.40, 2
0.70910, 0.00020, 21119.40, 534.90, 2
0.70960, 0.00025, 21338.60, 452.80, 2
0.71000, 0.00020, 20827.00, 384.50, 2
0.71050, 0.00025, 20690.20, 383.50, 2
0.71090, 0.00020, 21016.00, 387.70, 2
0.71130, 0.00020, 20727.90, 406.50, 2
0.71180, 0.00025, 20823.50, 364.10, 2
0.71220, 0.00020, 21210.70, 441.10, 2
0.71270, 0.00025, 21282.40, 371.10, 2
0.71310, 0.00020, 20794.70, 446.90, 2
0.71350, 0.00020, 20726.50, 294.90, 2
0.71400, 0.00025, 20587.10, 422.80, 2
0.71440, 0.00020, 21085.20, 464.40, 2
0.71490, 0.00025, 21156.40, 431.60, 2
0.71530, 0.00020, 21001.10, 473.80, 2
0.71570, 0.00020, 20793.30, 359.00, 2
0.71620, 0.00025, 21189.60, 380.70, 2
0.71660, 0.00020, 21182.10, 457.00, 2
0.71710, 0.00025, 21123.30, 414.90, 2
0.71750, 0.00020, 20939.20, 498.00, 2
0.71800, 0.00025, 21045.00, 584.20, 2
0.71840, 0.00020, 21218.10, 310.90, 2
0.71880, 0.00020, 20620.20, 500.40, 2
0.71930, 0.00025, 21027.60, 532.10, 2
0.71970, 0.00020, 21115.20, 488.10, 2
0.72020, 0.00025, 20899.60, 477.70, 2
0.72060, 0.00020, 20941.00, 530.50, 2
0.72110, 0.00025, 20642.00, 242.20, 2
0.72150, 0.00020, 21032.60, 393.00, 2
0.72190, 0.00020, 20919.30, 388.50, 2
0.72240, 0.00025, 20658.20, 438.40, 2
0.72280, 0.00020, 20521.10, 389.00, 2
0.72330, 0.00025, 20821.70, 437.80, 2
0.72370, 0.00020, 20711.40, 366.90, 2
0.72420, 0.00025, 20210.40, 419.10, 2
0.72460, 0.00020, 20392.30, 440.40, 2
0.72500, 0.00020, 20038.70, 576.00, 2
0.72550, 0.00025, 20100.20, 379.40, 2
0.72590, 0.00020, 19824.20, 387.60, 2
0.72640, 0.00025, 20113.30, 282.30, 2
0.72680, 0.00020, 20251.00, 470.20, 2
0.72730, 0.00025, 19945.40, 392.10, 2
0.72770, 0.00020, 20587.60, 421.80, 2
0.72820, 0.00025, 20611.50, 503.70, 2
0.72860, 0.00020, 20644.30, 434.50, 2
0.72900, 0.00020, 20680.40, 425.30, 2
0.72950, 0.00025, 20639.90, 370.30, 2
0.72990, 0.00020, 19927.10, 709.10, 2
0.73040, 0.00025, 20763.20, 746.00, 2
0.73080, 0.00020, 20979.10, 393.00, 2
0.73130, 0.00025, 20662.60, 682.00, 2
0.73170, 0.00020, 21222.80, 408.40, 2
0.73220, 0.00025, 21537.00, 427.90, 2
0.73260, 0.00020, 20826.00, 429.50, 2
0.73310, 0.00025, 21271.30, 314.20, 2
0.73350, 0.00020, 21736.50, 397.00, 2
0.73390, 0.00020, 21130.60, 484.40, 2
0.73440, 0.00025, 21054.60, 360.80, 2
0.73480, 0.00020, 21047.70, 457.70, 2
0.73530, 0.00025, 20696.30, 391.20, 2
0.73570, 0.00020, 21299.80, 478.20, 2
0.73620, 0.00025, 20577.50, 336.20, 2
0.73710, 0.00045, 20627.00, 453.20, 2
0.73750, 0.00020, 20852.50, 882.20, 2
0.73800, 0.00025, 21225.80, 611.10, 2
0.73840, 0.00020, 20741.10, 412.80, 2
0.73890, 0.00025, 20469.10, 411.30, 2
0.73930, 0.00020, 21125.20, 430.80, 2
0.73980, 0.00025, 20720.00, 295.20, 2
0.74020, 0.00020, 20948.50, 303.90, 2
0.74060, 0.00020, 20901.60, 422.50, 2
0.74110, 0.00025, 20738.10, 587.60, 2
0.74150, 0.00020, 21356.80, 486.20, 2
0.74200, 0.00025, 21102.10, 418.20, 2
0.74240, 0.00020, 20583.90, 403.70, 2
0.74290, 0.00025, 20889.70, 271.60, 2
0.74330, 0.00020, 21250.60, 517.00, 2
0.74380, 0.00025, 21328.30, 331.50, 2
0.74420, 0.00020, 21027.80, 441.10, 2
0.74471, 0.00026, 21188.50, 455.60, 2
0.74511, 0.00020, 20715.30, 452.10, 2
0.74561, 0.00025, 21343.30, 608.90, 2
0.74601, 0.00020, 20955.90, 337.40, 2
0.74651, 0.00025, 20927.80, 387.10, 2
0.74691, 0.00020, 20780.20, 365.10, 2
0.74741, 0.00025, 20963.40, 526.60, 2
0.74781, 0.00020, 20877.30, 375.70, 2
0.74831, 0.00025, 21130.40, 868.20, 2
0.74871, 0.00020, 20721.60, 465.50, 2
0.74921, 0.00025, 21122.80, 448.80, 2
0.74961, 0.00020, 20794.00, 327.30, 2
0.75011, 0.00025, 21456.20, 390.20, 2
0.75051, 0.00020, 20927.70, 427.30, 2
0.75101, 0.00025, 20976.10, 386.20, 2
0.75141, 0.00020, 20382.40, 394.20, 2
0.75191, 0.00025, 20768.40, 448.60, 2
0.75231, 0.00020, 20928.10, 381.90, 2
0.75281, 0.00025, 20464.00, 445.10, 2
0.75321, 0.00020, 20509.90, 499.20, 2
0.75371, 0.00025, 21417.30, 534.50, 2
0.75411, 0.00020, 20772.40, 385.90, 2
0.75461, 0.00025, 20344.40, 394.30, 2
0.75501, 0.00020, 20641.80, 423.80, 2
0.75551, 0.00025, 21386.50, 369.30, 2
0.75591, 0.00020, 20783.30, 736.10, 2
0.75641, 0.00025, 20836.00, 384.00, 2
0.75681, 0.00020, 21032.80, 411.40, 2
0.75731, 0.00025, 21033.10, 513.00, 2
0.75771, 0.00020, 20777.00, 405.30, 2
0.75821, 0.00025, 20630.00, 432.60, 2
0.75861, 0.00020, 20842.10, 426.80, 2
0.75911, 0.00025, 21050.00, 507.40, 2
0.75951, 0.00020, 20956.00, 496.80, 2
0.76001, 0.00025, 21101.90, 614.10, 2
0.76041, 0.00020, 20887.20, 472.40, 2
0.76091, 0.00025, 21200.60, 393.20, 2
0.76131, 0.00020, 20803.70, 440.00, 2
0.76181, 0.00025, 21225.30, 407.50, 2
0.76221, 0.00020, 20498.70, 312.20, 2
0.76271, 0.00025, 21097.70, 480.80, 2
0.76311, 0.00020, 20743.00, 862.50, 2
0.76361, 0.00025, 21224.60, 433.80, 2
0.76401, 0.00020, 20527.70, 486.20, 2
0.76451, 0.00025, 21460.60, 487.00, 2
0.76491, 0.00020, 21633.60, 490.90, 2
0.76541, 0.00025, 21788.80, 383.30, 2
0.76591, 0.00025, 21602.30, 307.80, 2
0.76631, 0.00020, 21998.00, 492.40, 2
0.76681, 0.00025, 21521.00, 764.40, 2
0.76771, 0.00045, 21536.20, 349.80, 2
0.76811, 0.00020, 21521.50, 380.10, 2
0.76861, 0.00025, 21456.30, 389.10, 2
0.76901, 0.00020, 21853.90, 394.90, 2
0.76951, 0.00025, 21123.50, 325.20, 2
0.76991, 0.00020, 21238.30, 468.20, 2
0.77041, 0.00025, 21229.20, 689.20, 2
0.77081, 0.00020, 20981.80, 437.40, 2
0.77131, 0.00025, 21168.00, 356.20, 2
0.77171, 0.00020, 21528.60, 522.90, 2
0.77221, 0.00025, 20765.80, 482.70, 2
0.77261, 0.00020, 20745.40, 449.50, 2
0.77311, 0.00025, 20771.30, 450.70, 2
0.77361, 0.00025, 21071.60, 463.80, 2
0.77401, 0.00020, 20272.40, 735.20, 2
0.77451, 0.00025, 21275.70, 437.80, 2
0.77491, 0.00020, 21009.40, 434.40, 2
0.77541, 0.00025, 20738.70, 409.40, 2
0.77581, 0.00020, 21015.90, 683.90, 2
0.77631, 0.00025, 20969.20, 334.40, 2
0.77671, 0.00020, 21008.70, 444.30, 2
0.77721, 0.00025, 20879.00, 356.40, 2
0.77761, 0.00020, 20648.70, 840.70, 2
0.77811, 0.00025, 21320.00, 457.60, 2
0.77861, 0.00025, 20510.20, 411.60, 2
0.77901, 0.00020, 20565.90, 581.80, 2
0.77951, 0.00025, 20645.30, 443.50, 2
0.77991, 0.00020, 21179.30, 352.90, 2
0.78041, 0.00025, 21223.00, 483.10, 2
0.78081, 0.00020, 20478.90, 375.70, 2
0.78131, 0.00025, 20822.10, 868.40, 2
0.78172, 0.00021, 20178.10, 446.30, 2
0.78222, 0.00025, 20423.50, 470.00, 2
0.78272, 0.00025, 21044.60, 386.60, 2
0.78312, 0.00020, 20886.70, 519.10, 2
0.78362, 0.00025, 21130.00, 429.50, 2
0.78402, 0.00020, 21050.40, 275.60, 2
0.78452, 0.00025, 20856.80, 422.60, 2
0.78492, 0.00020, 21271.10, 468.70, 2
0.78542, 0.00025, 20715.90, 472.60, 2
0.78582, 0.00020, 21407.70, 420.00, 2
0.78632, 0.00025, 21581.20, 376.90, 2
0.78682, 0.00025, 19949.20, 467.00, 2
0.78722, 0.00020, 20848.50, 350.10, 2
0.78772, 0.00025, 21368.50, 1020.90, 2
0.78812, 0.00020, 19929.30, 463.40, 2
0.78862, 0.00025, 20825.00, 500.30, 2
0.78902, 0.00020, 21091.00, 480.80, 2
0.78952, 0.00025, 20925.40, 535.00, 2
0.79002, 0.00025, 21031.40, 485.80, 2
0.79042, 0.00020, 20808.40, 514.00, 2
0.79092, 0.00025, 20292.30, 496.80, 2
0.79132, 0.00020, 20938.20, 514.50, 2
0.79182, 0.00025, 21103.50, 501.20, 2
0.79222, 0.00020, 20743.60, 336.30, 2
0.79272, 0.00025, 21128.60, 354.00, 2
0.79322, 0.00025, 21080.90, 369.00, 2
0.79362, 0.00020, 20569.60, 494.90, 2
0.79412, 0.00025, 20951.40, 365.50, 2
0.79452, 0.00020, 20803.30, 489.70, 2
0.79502, 0.00025, 21480.60, 444.20, 2
0.79542, 0.00020, 20475.80, 426.80, 2
0.79592, 0.00025, 21378.50, 403.60, 2
0.79642, 0.00025, 21745.70, 569.30, 2
0.79682, 0.00020, 20775.90, 501.70, 2
0.79732, 0.00025, 20834.60, 486.70, 2
0.79772, 0.00020, 20577.80, 563.60, 2
0.79822, 0.00025, 21563.00, 358.60, 2
0.79872, 0.00025, 21504.80, 451.80, 2
0.79912, 0.00020, 20754.20, 338.00, 2
0.79962, 0.00025, 20808.00, 580.30, 2
0.80002, 0.00020, 21004.70, 511.50, 2
0.80052, 0.00025, 20767.70, 566.40, 2
0.80092, 0.00020, 20927.00, 459.40, 2
0.80142, 0.00025, 21156.00, 547.60, 2
0.80192, 0.00025, 21275.20, 354.80, 2
0.80232, 0.00020, 21142.10, 467.10, 2
0.80282, 0.00025, 21684.60, 525.80, 2
0.80322, 0.00020, 21355.90, 620.50, 2
0.80372, 0.00025, 20853.00, 376.00, 2
0.80422, 0.00025, 21125.10, 387.10, 2
0.80512, 0.00045, 20869.80, 515.10, 2
0.80552, 0.00020, 20387.00, 469.20, 2
0.80602, 0.00025, 20938.60, 396.90, 2
0.80652, 0.00025, 20996.20, 586.20, 2
0.80692, 0.00020, 21780.90, 516.30, 2
0.80742, 0.00025, 21707.40, 532.80, 2
0.80782, 0.00020, 20894.80, 442.80, 2
0.80832, 0.00025, 21007.60, 446.20, 2
0.80882, 0.00025, 21359.40, 571.50, 2
0.80922, 0.00020, 21265.90, 477.30, 2
0.80972, 0.00025, 21577.70, 529.50, 2
0.81012, 0.00020, 21423.30, 406.20, 2
0.81062, 0.00025, 20564.50, 384.50, 2
0.81112, 0.00025, 21582.50, 499.70, 2
0.81152, 0.00020, 20777.90, 457.60, 2
0.81202, 0.00025, 20864.20, 452.10, 2
0.81242, 0.00020, 21094.60, 522.50, 2
0.81292, 0.00025, 20587.90, 515.60, 2
0.81342, 0.00025, 21120.00, 535.50, 2
0.81382, 0.00020, 21741.30, 397.80, 2
0.81432, 0.00025, 20881.70, 452.60, 2
0.81482, 0.00025, 21035.80, 519.10, 2
0.81522, 0.00020, 21100.00, 528.00, 2
0.81572, 0.00025, 20878.00, 552.50, 2
0.81612, 0.00020, 20810.80, 464.50, 2
0.81662, 0.00025, 21034.40, 457.00, 2
0.81712, 0.00025, 21318.70, 442.80, 2
0.81752, 0.00020, 21205.60, 413.60, 2
0.81802, 0.00025, 21532.10, 574.80, 2
0.81842, 0.00020, 21095.10, 435.70, 2
0.81893, 0.00026, 20556.00, 481.30, 2
0.81943, 0.00025, 20944.00, 446.80, 2
0.81983, 0.00020, 20975.00, 417.50, 2
0.82033, 0.00025, 20461.50, 468.80, 2
0.82083, 0.00025, 20704.10, 514.30, 2
0.82123, 0.00020, 21222.30, 491.30, 2
0.82173, 0.00025, 20769.30, 491.80, 2
0.82213, 0.00020, 20776.60, 570.40, 2
0.82263, 0.00025, 20597.80, 433.60, 2
0.82313, 0.00025, 20917.80, 598.10, 2
0.82353, 0.00020, 20682.50, 496.80, 2
0.82403, 0.00025, 20287.40, 589.00, 2
0.82453, 0.00025, 21639.60, 516.10, 2
0.82493, 0.00020, 20833.80, 436.00, 2
0.82543, 0.00025, 21336.40, 707.90, 2
0.82583, 0.00020, 20827.90, 394.00, 2
0.82633, 0.00025, 20844.30, 627.00, 2
0.82683, 0.00025, 21545.80, 597.20, 2
0.82723, 0.00020, 20755.50, 570.70, 2
0.82773, 0.00025, 21215.60, 454.90, 2
0.82823, 0.00025, 21208.60, 565.80, 2
0.82863, 0.00020, 21185.90, 579.70, 2
0.82913, 0.00025, 21731.40, 535.90, 2
0.82953, 0.00020, 21348.90, 534.40, 2
0.83003, 0.00025, 21498.20, 529.90, 2
0.83053, 0.00025, 21373.20, 557.20, 2
0.83093, 0.00020, 21349.50, 449.80, 2
0.83143, 0.00025, 21243.20, 557.80, 2
0.83193, 0.00025, 21139.80, 603.20, 2
0.83233, 0.00020, 21352.70, 582.10, 2
0.83283, 0.00025, 20232.00, 520.00, 2
